        dNpi/dy       Tch[MeV]     dVdy[fm^3]       Vc[fm^3]         gammaS           K/pi          Xi/pi         phi/pi           p/pi       Omega/pi          La/pi
              3       0.173144            7.2           21.6       0.762394       0.128026     0.00263492      0.0173265      0.0800545    0.000196922      0.0314646
        3.20365       0.172973        7.68877        23.0663       0.763213        0.12942     0.00273938      0.0173145      0.0797708     0.00021216        0.03179
        3.42113       0.172802        8.21072        24.6322       0.764084       0.130719     0.00284097      0.0173064      0.0794926    0.000227767      0.0320856
        3.65337       0.172631         8.7681        26.3043       0.765011       0.131931     0.00293944      0.0173023      0.0792193    0.000243672      0.0323539
        3.90138       0.172461        9.36332          28.09       0.765997       0.133064      0.0030346       0.017302      0.0789504    0.000259806      0.0325973
        4.16623        0.17229        9.99894        29.9968       0.767045       0.134128     0.00312637      0.0173055      0.0786855    0.000276098      0.0328183
        4.44905       0.172119        10.6777        32.0332       0.768159        0.13513      0.0032147      0.0173129       0.078424    0.000292482      0.0330193
        4.75107       0.171948        11.4026        34.2077       0.769342       0.136077     0.00329961      0.0173241      0.0781655    0.000308897      0.0332024
         5.0736       0.171777        12.1766        36.5299         0.7706       0.136977     0.00338115      0.0173393      0.0779096    0.000325286      0.0333697
        5.41802       0.171607        13.0032        39.0097       0.771935       0.137835     0.00345945      0.0173583      0.0776559    0.000341601      0.0335231
        5.78582       0.171436         13.886        41.6579       0.773352       0.138659     0.00353463      0.0173814      0.0774041    0.000357798      0.0336642
        6.17858       0.171265        14.8286        44.4858       0.774856       0.139452     0.00360685      0.0174086      0.0771538    0.000373843      0.0337945
        6.59801       0.171094        15.8352        47.5057       0.776451        0.14022     0.00367629        0.01744      0.0769049     0.00038971      0.0339155
        7.04592       0.170924        16.9102        50.7306       0.778142       0.140966     0.00374314      0.0174758      0.0766569    0.000405377      0.0340282
        7.52423       0.170753        18.0581        54.1744       0.779933       0.141695     0.00380759       0.017516      0.0764098    0.000420833      0.0341339
        8.03501       0.170582         19.284         57.852        0.78183        0.14241     0.00386985      0.0175608      0.0761634    0.000436072      0.0342335
        8.58046       0.170411        20.5931        61.7793       0.783838       0.143114     0.00393012      0.0176105      0.0759173    0.000451093      0.0343279
        9.16294       0.170241        21.9911        65.9732       0.785961        0.14381      0.0039886      0.0176651      0.0756715    0.000465902      0.0344181
        9.78496        0.17007        23.4839        70.4517       0.788206       0.144501     0.00404549      0.0177248      0.0754258    0.000480509      0.0345046
        10.4492       0.169899        25.0781        75.2343       0.790577       0.145189       0.004101      0.0177899        0.07518    0.000494929      0.0345883
        11.1586       0.169728        26.7805        80.3416        0.79308       0.145878     0.00415531      0.0178604       0.074934    0.000509179      0.0346699
         11.916       0.169557        28.5985        85.7955        0.79572       0.146569     0.00420861      0.0179368      0.0746877     0.00052328      0.0347499
         12.725       0.169387        30.5399        91.6197       0.798501       0.147264     0.00426109       0.018019       0.074441    0.000537256      0.0348289
        13.5888       0.169216        32.6131        97.8393        0.80143       0.147965     0.00431291      0.0181073      0.0741937    0.000551132      0.0349074
        14.5113       0.169045         34.827        104.481        0.80451       0.148674     0.00436426       0.018202      0.0739457    0.000564934       0.034986
        15.4964       0.168874        37.1912        111.574       0.807747       0.149393     0.00441528      0.0183032      0.0736971     0.00057869       0.035065
        16.5483       0.168704         39.716        119.148       0.811145       0.150124     0.00446614       0.018411      0.0734476    0.000592427      0.0351449
        17.6717       0.168533        42.4121        127.236       0.814707       0.150868     0.00451697      0.0185258      0.0731972    0.000606175       0.035226
        18.8713       0.168362        45.2912        135.874       0.818436       0.151625      0.0045679      0.0186475      0.0729458     0.00061996      0.0353087
        20.1524       0.168191        48.3658        145.097       0.822336       0.152398     0.00461906      0.0187764      0.0726935    0.000633809      0.0353932
        21.5204       0.168021        51.6491        154.947       0.826408       0.153188     0.00467056      0.0189126      0.0724401    0.000647747      0.0354797
        22.9813        0.16785        55.1552        165.466       0.830654       0.153994     0.00472248      0.0190561      0.0721856    0.000661799      0.0355684
        24.5414       0.167679        58.8994        176.698       0.835073       0.154818     0.00477492       0.019207      0.0719301    0.000675985      0.0356594
        26.2074       0.167508        62.8978        188.693       0.839665        0.15566     0.00482793      0.0193653      0.0716735    0.000690324      0.0357528
        27.9865       0.167338        67.1676        201.503       0.844427        0.15652     0.00488157       0.019531      0.0714158    0.000704832      0.0358487
        29.8863       0.167167        71.7272        215.182       0.849357       0.157398     0.00493587      0.0197039      0.0711571     0.00071952      0.0359469
        31.9152       0.166996        76.5964        229.789       0.854449       0.158293     0.00499082      0.0198839      0.0708974    0.000734395      0.0360474
        34.0817       0.166825        81.7961        245.388       0.859697       0.159206     0.00504642      0.0200708      0.0706368     0.00074946      0.0361499
        36.3953       0.166654        87.3488        262.046       0.865092       0.160134     0.00510264      0.0202643      0.0703754    0.000764712      0.0362542
         38.866       0.166484        93.2785        279.835       0.870625       0.161077     0.00515942       0.020464      0.0701132    0.000780142      0.0363601
        41.5044       0.166313        99.6106        298.832       0.876283       0.162033     0.00521666      0.0206695      0.0698505    0.000795733       0.036467
        44.3219       0.166142        106.373        319.118       0.882052       0.162999     0.00527425      0.0208801      0.0695873    0.000811464      0.0365746
        47.3307       0.165971        113.594        340.781       0.887916       0.163975     0.00533206      0.0210953      0.0693238    0.000827303      0.0366824
        50.5438       0.165801        121.305        363.915       0.893857       0.164956     0.00538992      0.0213143      0.0690602    0.000843212      0.0367896
        53.9749        0.16563         129.54        388.619       0.899854       0.165941     0.00544762      0.0215362      0.0687967    0.000859146      0.0368957
         57.639       0.165459        138.334        415.001       0.905884       0.166925     0.00550496      0.0217601      0.0685335    0.000875049      0.0369999
        61.5518       0.165288        147.724        443.173       0.911923       0.167905     0.00556167      0.0219849      0.0682709     0.00089086      0.0371014
        65.7302       0.165118        157.752        473.257       0.917945       0.168877     0.00561749      0.0222095       0.068009    0.000906507      0.0371994
        70.1922       0.164947        168.461        505.384       0.923922       0.169837     0.00567212      0.0224327      0.0677482    0.000921915      0.0372929
        74.9572       0.164776        179.897        539.692       0.929824       0.170781     0.00572526      0.0226531      0.0674887    0.000936998      0.0373812
        80.0457       0.164605         192.11        576.329       0.935623       0.171704     0.00577657      0.0228695      0.0672308    0.000951669      0.0374632
        85.4795       0.164434        205.151        615.453       0.941287       0.172602     0.00582573      0.0230804      0.0669748    0.000965834      0.0375381
        91.2823       0.164264        219.077        657.232       0.946787        0.17347     0.00587241      0.0232844      0.0667208      0.0009794      0.0376049
        97.4789       0.164093        233.949        701.848       0.952092       0.174304     0.00591629      0.0234802      0.0664693    0.000992272      0.0376628
        104.096       0.163922        249.831        749.493       0.957175       0.175099     0.00595704      0.0236664      0.0662203     0.00100436       0.037711
        111.163       0.163751        266.791        800.372       0.962009       0.175853     0.00599439      0.0238419      0.0659741     0.00101557      0.0377487
        118.709       0.163581        284.902        854.705        0.96657        0.17656     0.00602806      0.0240054       0.065731     0.00102584      0.0377754
        126.768        0.16341        304.242        912.726       0.970838       0.177219     0.00605786      0.0241559      0.0654909     0.00103508      0.0377905
        135.373       0.163239        324.895        974.686       0.974796       0.177827      0.0060836      0.0242927      0.0652541     0.00104325      0.0377936
        144.563       0.163068        346.951        1040.85       0.978431       0.178382     0.00610515      0.0244151      0.0650206      0.0010503      0.0377845
        154.376       0.162898        370.504        1111.51       0.981736       0.178883     0.00612247      0.0245226      0.0647905      0.0010562      0.0377631
        164.856       0.162727        395.655        1186.97       0.984709       0.179331     0.00613555      0.0246152      0.0645637     0.00106096      0.0377296
        176.047       0.162556        422.514        1267.54       0.987351       0.179724     0.00614445      0.0246929      0.0643401     0.00106458      0.0376842
        187.998       0.162385        451.196        1353.59        0.98967       0.180066      0.0061493      0.0247559      0.0641196     0.00106709      0.0376273
        200.761       0.162215        481.825        1445.48       0.991679       0.180358     0.00615028      0.0248049      0.0639021     0.00106854      0.0375594
        214.389       0.162044        514.534         1543.6       0.993396       0.180603     0.00614761      0.0248406      0.0636873     0.00106898      0.0374813
        228.943       0.161873        549.463        1648.39       0.994839       0.180803     0.00614157      0.0248638      0.0634751      0.0010685      0.0373938
        244.485       0.161702        586.763        1760.29       0.996034       0.180964     0.00613246      0.0248757      0.0632651     0.00106717      0.0372977
        261.081       0.161531        626.595        1879.79       0.997007       0.181089     0.00612062      0.0248774      0.0630572     0.00106509       0.037194
        278.805       0.161361        669.131        2007.39       0.997783       0.181181     0.00610636      0.0248701       0.062851     0.00106234      0.0370836
        297.731        0.16119        714.555        2143.66       0.998392       0.181247     0.00609003      0.0248551      0.0626463     0.00105901      0.0369674
        317.943       0.161019        763.062        2289.19       0.998858       0.181288     0.00607195      0.0248335      0.0624428     0.00105521      0.0368465
        339.526       0.160848        814.862        2444.59       0.999208       0.181311      0.0060524      0.0248065      0.0622403     0.00105099      0.0367215
        362.575       0.160678        870.179        2610.54       0.999464       0.181317     0.00603165      0.0247752      0.0620386     0.00104645      0.0365933
        387.188       0.160507        929.251        2787.75       0.999647        0.18131     0.00600995      0.0247403      0.0618375     0.00104163      0.0364626
        413.472       0.160336        992.333           2977       0.999774       0.181293     0.00598749      0.0247028      0.0616368     0.00103661      0.0363299
         441.54       0.160165         1059.7        3179.09       0.999859       0.181269     0.00596444      0.0246632      0.0614364     0.00103142      0.0361956
        471.514       0.159995        1131.63         3394.9       0.999915       0.181238     0.00594093      0.0246221      0.0612362      0.0010261      0.0360602
        503.523       0.159824        1208.45        3625.36       0.999951       0.181203     0.00591708      0.0245798      0.0610361     0.00102067      0.0359239
        537.704       0.159653        1290.49        3871.47       0.999972       0.181163     0.00589295      0.0245367      0.0608361     0.00101518       0.035787
        574.206       0.159482        1378.09        4134.28       0.999985       0.181122     0.00586861      0.0244931      0.0606361     0.00100962      0.0356496
        613.186       0.159311        1471.65        4414.94       0.999992       0.181077     0.00584411      0.0244489      0.0604361     0.00100401      0.0355118
        654.812       0.159141        1571.55        4714.64       0.999996       0.181031     0.00581948      0.0244044       0.060236     0.00099837      0.0353738
        699.263        0.15897        1678.23         5034.7       0.999998       0.180984     0.00579475      0.0243596       0.060036    0.000992703      0.0352357
        746.732       0.158799        1792.16        5376.47       0.999999       0.180935     0.00576994      0.0243145      0.0598358    0.000987016      0.0350973
        797.424       0.158628        1913.82        5741.45              1       0.180885     0.00574506      0.0242692      0.0596356    0.000981317      0.0349589
        851.557       0.158458        2043.74        6131.21              1       0.180833     0.00572014      0.0242236      0.0594354    0.000975609      0.0348203
        909.365       0.158287        2182.47        6547.42              1       0.180781     0.00569519      0.0241778      0.0592351    0.000969899      0.0346817
        971.096       0.158116        2330.63        6991.89              1       0.180727     0.00567021      0.0241318      0.0590347     0.00096419      0.0345431
        1037.02       0.157945        2488.85        7466.54              1       0.180673     0.00564522      0.0240855      0.0588342    0.000958486      0.0344044
        1107.42       0.157775         2657.8         7973.4              1       0.180618     0.00562023      0.0240391      0.0586337     0.00095279      0.0342657
        1182.59       0.157604        2838.22        8514.67              1       0.180561     0.00559524      0.0239923      0.0584332    0.000947105       0.034127
        1262.87       0.157433         3030.9        9092.69              1       0.180505     0.00557025      0.0239454      0.0582325    0.000941432      0.0339883
         1348.6       0.157262        3236.65        9709.94              1       0.180447     0.00554527      0.0238982      0.0580319    0.000935772      0.0338497
        1440.15       0.157091        3456.36        10369.1              1       0.180388      0.0055203      0.0238507      0.0578311    0.000930126       0.033711
        1537.92       0.156921           3691          11073              1       0.180329     0.00549534      0.0238031      0.0576303    0.000924493      0.0335724
        1642.32        0.15675        3941.56        11824.7              1       0.180269     0.00547039      0.0237552      0.0574295    0.000918874      0.0334338
        1753.81       0.156579        4209.13        12627.4              1       0.180207     0.00544545       0.023707      0.0572286    0.000913267      0.0332952
        1872.86       0.156408        4494.87        13484.6              1       0.180146     0.00542051      0.0236587      0.0570276    0.000907672      0.0331566
           2000       0.156238           4800          14400              1       0.180083     0.00539558      0.0236101      0.0568266    0.000902086       0.033018
